#X		#Y		#Wave		#Intensity
-423.500000	-1650.000000	1819.619141	2286.347412
-423.500000	-1650.000000	1818.655273	2390.036621
-423.500000	-1650.000000	1817.690430	2306.580566
-423.500000	-1650.000000	1816.725586	2443.404297
-423.500000	-1650.000000	1815.760742	2328.886719
-423.500000	-1650.000000	1814.794922	2426.796387
-423.500000	-1650.000000	1813.830078	2371.888672
-423.500000	-1650.000000	1812.864258	2438.680176
-423.500000	-1650.000000	1811.898438	2370.852539
-423.500000	-1650.000000	1810.931641	2460.904541
-423.500000	-1650.000000	1809.965820	2393.101807
-423.500000	-1650.000000	1808.999023	2423.618408
-423.500000	-1650.000000	1808.032227	2469.637695
-423.500000	-1650.000000	1807.065430	2479.440674
-423.500000	-1650.000000	1806.098633	2349.656006
-423.500000	-1650.000000	1805.130859	2434.426270
-423.500000	-1650.000000	1804.163086	2402.890381
-423.500000	-1650.000000	1803.195313	2477.279297
-423.500000	-1650.000000	1802.227539	2319.199463
-423.500000	-1650.000000	1801.259766	2571.736572
-423.500000	-1650.000000	1800.291016	2382.726807
-423.500000	-1650.000000	1799.322266	2469.960205
-423.500000	-1650.000000	1798.353516	2410.073975
-423.500000	-1650.000000	1797.384766	2419.868652
-423.500000	-1650.000000	1796.415039	2535.408691
-423.500000	-1650.000000	1795.445313	2558.065674
-423.500000	-1650.000000	1794.475586	2516.259277
-423.500000	-1650.000000	1793.505859	2572.418945
-423.500000	-1650.000000	1792.536133	2507.434326
-423.500000	-1650.000000	1791.565430	2470.819336
-423.500000	-1650.000000	1790.594727	2405.885010
-423.500000	-1650.000000	1789.624023	2503.225342
-423.500000	-1650.000000	1788.653320	2471.784424
-423.500000	-1650.000000	1787.681641	2569.068115
-423.500000	-1650.000000	1786.710938	2468.137939
-423.500000	-1650.000000	1785.739258	2439.298096
-423.500000	-1650.000000	1784.767578	2482.502197
-423.500000	-1650.000000	1783.794922	2453.671875
-423.500000	-1650.000000	1782.823242	2501.997070
-423.500000	-1650.000000	1781.850586	2527.163330
-423.500000	-1650.000000	1780.877930	2521.474854
-423.500000	-1650.000000	1779.905273	2441.266113
-423.500000	-1650.000000	1778.931641	2566.627930
-423.500000	-1650.000000	1777.958984	2460.757568
-423.500000	-1650.000000	1776.985352	2586.060791
-423.500000	-1650.000000	1776.011719	2564.960693
-423.500000	-1650.000000	1775.038086	2510.499023
-423.500000	-1650.000000	1774.063477	2540.752930
-423.500000	-1650.000000	1773.088867	2540.203125
-423.500000	-1650.000000	1772.114258	2562.741211
-423.500000	-1650.000000	1771.139648	2572.446045
-423.500000	-1650.000000	1770.165039	2574.454102
-423.500000	-1650.000000	1769.189453	2558.515625
-423.500000	-1650.000000	1768.214844	2545.147217
-423.500000	-1650.000000	1767.239258	2600.972900
-423.500000	-1650.000000	1766.262695	2684.956299
-423.500000	-1650.000000	1765.287109	2571.673584
-423.500000	-1650.000000	1764.310547	2527.583252
-423.500000	-1650.000000	1763.333984	2565.442383
-423.500000	-1650.000000	1762.357422	2577.687256
-423.500000	-1650.000000	1761.380859	2559.216553
-423.500000	-1650.000000	1760.403320	2673.804199
-423.500000	-1650.000000	1759.426758	2586.251465
-423.500000	-1650.000000	1758.449219	2624.056885
-423.500000	-1650.000000	1757.471680	2666.960205
-423.500000	-1650.000000	1756.493164	2676.610840
-423.500000	-1650.000000	1755.515625	2642.807129
-423.500000	-1650.000000	1754.537109	2639.682129
-423.500000	-1650.000000	1753.558594	2649.332520
-423.500000	-1650.000000	1752.580078	2561.916992
-423.500000	-1650.000000	1751.600586	2571.579834
-423.500000	-1650.000000	1750.621094	2578.685547
-423.500000	-1650.000000	1749.641602	2670.023926
-423.500000	-1650.000000	1748.662109	2761.322998
-423.500000	-1650.000000	1747.682617	2628.050537
-423.500000	-1650.000000	1746.702148	2691.258789
-423.500000	-1650.000000	1745.722656	2711.082764
-423.500000	-1650.000000	1744.742188	2593.206055
-423.500000	-1650.000000	1743.761719	2725.212402
-423.500000	-1650.000000	1742.780273	2716.979980
-423.500000	-1650.000000	1741.799805	2701.106445
-423.500000	-1650.000000	1740.818359	2741.288574
-423.500000	-1650.000000	1739.836914	2862.960938
-423.500000	-1650.000000	1738.854492	2801.227783
-423.500000	-1650.000000	1737.873047	2815.902100
-423.500000	-1650.000000	1736.890625	2800.024170
-423.500000	-1650.000000	1735.908203	2906.309814
-423.500000	-1650.000000	1734.925781	2814.087891
-423.500000	-1650.000000	1733.943359	2782.957520
-423.500000	-1650.000000	1732.959961	2810.336182
-423.500000	-1650.000000	1731.976563	2883.472656
-423.500000	-1650.000000	1730.993164	2923.529053
-423.500000	-1650.000000	1730.009766	2917.818359
-423.500000	-1650.000000	1729.026367	2919.733398
-423.500000	-1650.000000	1728.041992	2860.674072
-423.500000	-1650.000000	1727.057617	2959.121094
-423.500000	-1650.000000	1726.073242	2902.618164
-423.500000	-1650.000000	1725.088867	2990.858398
-423.500000	-1650.000000	1724.103516	3028.292969
-423.500000	-1650.000000	1723.119141	3025.105957
-423.500000	-1650.000000	1722.133789	2994.010010
-423.500000	-1650.000000	1721.147461	2965.464111
-423.500000	-1650.000000	1720.162109	3023.161621
-423.500000	-1650.000000	1719.175781	3040.263672
-423.500000	-1650.000000	1718.190430	3138.482422
-423.500000	-1650.000000	1717.204102	3137.810303
-423.500000	-1650.000000	1716.216797	3091.525635
-423.500000	-1650.000000	1715.230469	3075.662842
-423.500000	-1650.000000	1714.243164	3080.070313
-423.500000	-1650.000000	1713.255859	2965.452637
-423.500000	-1650.000000	1712.268555	2974.945557
-423.500000	-1650.000000	1711.281250	3080.624756
-423.500000	-1650.000000	1710.292969	3052.126953
-423.500000	-1650.000000	1709.305664	2960.385254
-423.500000	-1650.000000	1708.317383	3055.880859
-423.500000	-1650.000000	1707.328125	3108.339844
-423.500000	-1650.000000	1706.339844	3105.146484
-423.500000	-1650.000000	1705.350586	3104.482666
-423.500000	-1650.000000	1704.362305	3174.590088
-423.500000	-1650.000000	1703.373047	3267.410645
-423.500000	-1650.000000	1702.382813	3266.712402
-423.500000	-1650.000000	1701.393555	3266.014404
-423.500000	-1650.000000	1700.403320	3341.077881
-423.500000	-1650.000000	1699.413086	3337.839355
-423.500000	-1650.000000	1698.422852	3301.786133
-423.500000	-1650.000000	1697.432617	3422.221680
-423.500000	-1650.000000	1696.441406	3381.119385
-423.500000	-1650.000000	1695.450195	3445.987061
-423.500000	-1650.000000	1694.458984	3551.181641
-423.500000	-1650.000000	1693.467773	3484.861816
-423.500000	-1650.000000	1692.476563	3549.665771
-423.500000	-1650.000000	1691.484375	3589.236816
-423.500000	-1650.000000	1690.492188	3535.551025
-423.500000	-1650.000000	1689.500000	3504.563232
-423.500000	-1650.000000	1688.507813	3523.966797
-423.500000	-1650.000000	1687.514648	3578.619629
-423.500000	-1650.000000	1686.521484	3673.534424
-423.500000	-1650.000000	1685.528320	3803.650879
-423.500000	-1650.000000	1684.535156	3649.316895
-423.500000	-1650.000000	1683.541992	3585.632813
-423.500000	-1650.000000	1682.547852	3735.810303
-423.500000	-1650.000000	1681.553711	3719.922852
-423.500000	-1650.000000	1680.559570	3658.779053
-423.500000	-1650.000000	1679.565430	3788.731934
-423.500000	-1650.000000	1678.571289	3765.302490
-423.500000	-1650.000000	1677.576172	3809.734619
-423.500000	-1650.000000	1676.581055	3879.272217
-423.500000	-1650.000000	1675.585938	3878.445801
-423.500000	-1650.000000	1674.590820	3827.391602
-423.500000	-1650.000000	1673.594727	3919.478760
-423.500000	-1650.000000	1672.598633	3808.188965
-423.500000	-1650.000000	1671.602539	3965.495850
-423.500000	-1650.000000	1670.606445	3911.956787
-423.500000	-1650.000000	1669.610352	3906.106445
-423.500000	-1650.000000	1668.613281	3897.750244
-423.500000	-1650.000000	1667.616211	3871.843750
-423.500000	-1650.000000	1666.619141	3936.205078
-423.500000	-1650.000000	1665.622070	3912.807861
-423.500000	-1650.000000	1664.624023	3964.602783
-423.500000	-1650.000000	1663.625977	3881.076416
-423.500000	-1650.000000	1662.627930	3787.565430
-423.500000	-1650.000000	1661.629883	3922.000977
-423.500000	-1650.000000	1660.631836	3943.702148
-423.500000	-1650.000000	1659.632813	3770.128174
-423.500000	-1650.000000	1658.633789	3861.932617
-423.500000	-1650.000000	1657.634766	3898.646240
-423.500000	-1650.000000	1656.635742	3687.665283
-423.500000	-1650.000000	1655.636719	3734.405273
-423.500000	-1650.000000	1654.636719	3773.623047
-423.500000	-1650.000000	1653.636719	3735.317627
-423.500000	-1650.000000	1652.636719	3754.520996
-423.500000	-1650.000000	1651.636719	3763.719238
-423.500000	-1650.000000	1650.635742	3710.448242
-423.500000	-1650.000000	1649.634766	3719.651855
-423.500000	-1650.000000	1648.633789	3768.812500
-423.500000	-1650.000000	1647.632813	3830.437012
-423.500000	-1650.000000	1646.631836	3822.133545
-423.500000	-1650.000000	1645.629883	3811.337646
-423.500000	-1650.000000	1644.627930	3865.427246
-423.500000	-1650.000000	1643.625977	4051.723633
-423.500000	-1650.000000	1642.624023	3998.480957
-423.500000	-1650.000000	1641.621094	3980.174805
-423.500000	-1650.000000	1640.618164	4118.954590
-423.500000	-1650.000000	1639.615234	4200.341797
-423.500000	-1650.000000	1638.612305	4236.833496
-423.500000	-1650.000000	1637.609375	4108.855469
-423.500000	-1650.000000	1636.605469	4018.299805
-423.500000	-1650.000000	1635.601563	3987.558350
-423.500000	-1650.000000	1634.597656	4004.142578
-423.500000	-1650.000000	1633.593750	3856.405273
-423.500000	-1650.000000	1632.589844	3713.708740
-423.500000	-1650.000000	1631.584961	3665.637939
-423.500000	-1650.000000	1630.580078	3644.955322
-423.500000	-1650.000000	1629.575195	3611.843994
-423.500000	-1650.000000	1628.569336	3616.051270
-423.500000	-1650.000000	1627.564453	3592.905762
-423.500000	-1650.000000	1626.558594	3542.424805
-423.500000	-1650.000000	1625.552734	3390.064453
-423.500000	-1650.000000	1624.546875	3540.921143
-423.500000	-1650.000000	1623.540039	3572.465820
-423.500000	-1650.000000	1622.534180	3420.195801
-423.500000	-1650.000000	1621.527344	3407.053467
-423.500000	-1650.000000	1620.520508	3498.192139
-423.500000	-1650.000000	1619.512695	3355.963135
-423.500000	-1650.000000	1618.505859	3347.805908
-423.500000	-1650.000000	1617.498047	3359.501465
-423.500000	-1650.000000	1616.490234	3348.865967
-423.500000	-1650.000000	1615.482422	3377.916748
-423.500000	-1650.000000	1614.473633	3414.393799
-423.500000	-1650.000000	1613.465820	3433.501953
-423.500000	-1650.000000	1612.457031	3296.453857
-423.500000	-1650.000000	1611.448242	3454.347412
-423.500000	-1650.000000	1610.438477	3361.947510
-423.500000	-1650.000000	1609.429688	3418.204346
-423.500000	-1650.000000	1608.419922	3370.427002
-423.500000	-1650.000000	1607.410156	3451.416992
-423.500000	-1650.000000	1606.400391	3485.340332
-423.500000	-1650.000000	1605.390625	3548.947266
-423.500000	-1650.000000	1604.379883	3572.937744
-423.500000	-1650.000000	1603.369141	3611.760986
-423.500000	-1650.000000	1602.358398	3635.727539
-423.500000	-1650.000000	1601.347656	3620.119873
-423.500000	-1650.000000	1600.335938	3594.629639
-423.500000	-1650.000000	1599.325195	3596.339111
-423.500000	-1650.000000	1598.313477	3570.864502
-423.500000	-1650.000000	1597.300781	3493.516602
-423.500000	-1650.000000	1596.289063	3500.186035
-423.500000	-1650.000000	1595.276367	3464.869141
-423.500000	-1650.000000	1594.264648	3419.690430
-423.500000	-1650.000000	1593.251953	3335.033936
-423.500000	-1650.000000	1592.238281	3267.689453
-423.500000	-1650.000000	1591.225586	3419.982666
-423.500000	-1650.000000	1590.211914	3404.455566
-423.500000	-1650.000000	1589.198242	3366.736328
-423.500000	-1650.000000	1588.184570	3361.090332
-423.500000	-1650.000000	1587.170898	3333.257813
-423.500000	-1650.000000	1586.156250	3418.822754
-423.500000	-1650.000000	1585.141602	3270.234619
-423.500000	-1650.000000	1584.126953	3427.228271
-423.500000	-1650.000000	1583.112305	3396.941406
-423.500000	-1650.000000	1582.097656	3386.369629
-423.500000	-1650.000000	1581.082031	3301.933594
-423.500000	-1650.000000	1580.066406	3288.924316
-423.500000	-1650.000000	1579.050781	3366.986816
-423.500000	-1650.000000	1578.035156	3339.204834
-423.500000	-1650.000000	1577.018555	3392.621094
-423.500000	-1650.000000	1576.001953	3384.522461
-423.500000	-1650.000000	1574.985352	3499.385254
-423.500000	-1650.000000	1573.968750	3397.838867
-423.500000	-1650.000000	1572.952148	3497.900879
-423.500000	-1650.000000	1571.934570	3298.093750
-423.500000	-1650.000000	1570.916992	3285.108887
-423.500000	-1650.000000	1569.899414	3363.021729
-423.500000	-1650.000000	1568.881836	3438.445557
-423.500000	-1650.000000	1567.863281	3388.605957
-423.500000	-1650.000000	1566.844727	3461.536865
-423.500000	-1650.000000	1565.826172	3401.895264
-423.500000	-1650.000000	1564.807617	3371.726318
-423.500000	-1650.000000	1563.789063	3329.302734
-423.500000	-1650.000000	1562.769531	3380.107422
-423.500000	-1650.000000	1561.750000	3502.009766
-423.500000	-1650.000000	1560.730469	3383.577393
-423.500000	-1650.000000	1559.710938	3375.505371
-423.500000	-1650.000000	1558.690430	3396.846680
-423.500000	-1650.000000	1557.669922	3325.067139
-423.500000	-1650.000000	1556.649414	3517.894775
-423.500000	-1650.000000	1555.628906	3411.829834
-423.500000	-1650.000000	1554.608398	3322.950928
-423.500000	-1650.000000	1553.586914	3491.173584
-423.500000	-1650.000000	1552.565430	3478.194336
-423.500000	-1650.000000	1551.543945	3377.121338
-423.500000	-1650.000000	1550.522461	3552.564941
-423.500000	-1650.000000	1549.500000	3422.165039
-423.500000	-1650.000000	1548.477539	3396.982422
-423.500000	-1650.000000	1547.455078	3450.053955
-423.500000	-1650.000000	1546.432617	3503.102783
-423.500000	-1650.000000	1545.410156	3392.375732
-423.500000	-1650.000000	1544.386719	3389.212158
-423.500000	-1650.000000	1543.363281	3378.720459
-423.500000	-1650.000000	1542.339844	3421.968506
-423.500000	-1650.000000	1541.316406	3411.474121
-423.500000	-1650.000000	1540.291992	3383.893555
-423.500000	-1650.000000	1539.268555	3358.765381
-423.500000	-1650.000000	1538.244141	3460.551025
-423.500000	-1650.000000	1537.218750	3462.256104
-423.500000	-1650.000000	1536.194336	3466.399658
-423.500000	-1650.000000	1535.168945	3492.491455
-423.500000	-1650.000000	1534.143555	3442.982178
-423.500000	-1650.000000	1533.118164	3400.807373
-423.500000	-1650.000000	1532.092773	3436.645020
-423.500000	-1650.000000	1531.066406	3431.041504
-423.500000	-1650.000000	1530.041016	3471.729736
-423.500000	-1650.000000	1529.014648	3490.478516
-423.500000	-1650.000000	1527.987305	3431.290527
-423.500000	-1650.000000	1526.960938	3498.734619
-423.500000	-1650.000000	1525.933594	3510.162354
-423.500000	-1650.000000	1524.906250	3421.802734
-423.500000	-1650.000000	1523.878906	3340.780029
-423.500000	-1650.000000	1522.851563	3507.925049
-423.500000	-1650.000000	1521.823242	3443.943115
-423.500000	-1650.000000	1520.795898	3435.916260
-423.500000	-1650.000000	1519.767578	3481.377441
-423.500000	-1650.000000	1518.738281	3434.455566
-423.500000	-1650.000000	1517.709961	3414.284668
-423.500000	-1650.000000	1516.680664	3537.467285
-423.500000	-1650.000000	1515.651367	3439.552734
-423.500000	-1650.000000	1514.622070	3356.250732
-423.500000	-1650.000000	1513.592773	3537.639160
-423.500000	-1650.000000	1512.562500	3347.540771
-423.500000	-1650.000000	1511.532227	3553.123535
-423.500000	-1650.000000	1510.501953	3596.044434
-423.500000	-1650.000000	1509.471680	3527.352539
-423.500000	-1650.000000	1508.441406	3618.769043
-423.500000	-1650.000000	1507.410156	3477.353027
-423.500000	-1650.000000	1506.378906	3636.624756
-423.500000	-1650.000000	1505.347656	3473.449463
-423.500000	-1650.000000	1504.316406	3526.024658
-423.500000	-1650.000000	1503.284180	3532.542969
-423.500000	-1650.000000	1502.251953	3468.809814
-423.500000	-1650.000000	1501.219727	3627.912598
-423.500000	-1650.000000	1500.187500	3501.231689
-423.500000	-1650.000000	1499.154297	3623.947266
-423.500000	-1650.000000	1498.122070	3659.479980
-423.500000	-1650.000000	1497.088867	3593.366699
-423.500000	-1650.000000	1496.054688	3570.828125
-423.500000	-1650.000000	1495.021484	3616.023682
-423.500000	-1650.000000	1493.987305	3610.416992
-423.500000	-1650.000000	1492.954102	3658.002197
-423.500000	-1650.000000	1491.918945	3686.229248
-423.500000	-1650.000000	1490.884766	3789.361328
-423.500000	-1650.000000	1489.850586	3761.975830
-423.500000	-1650.000000	1488.815430	3722.523682
-423.500000	-1650.000000	1487.780273	3765.202637
-423.500000	-1650.000000	1486.745117	3800.619385
-423.500000	-1650.000000	1485.708984	3843.263184
-423.500000	-1650.000000	1484.673828	3808.653564
-423.500000	-1650.000000	1483.637695	3754.753662
-423.500000	-1650.000000	1482.601563	3905.944580
-423.500000	-1650.000000	1481.564453	3837.573975
-423.500000	-1650.000000	1480.528320	3839.166992
-423.500000	-1650.000000	1479.491211	3881.746338
-423.500000	-1650.000000	1478.454102	3883.328857
-423.500000	-1650.000000	1477.416992	4005.409912
-423.500000	-1650.000000	1476.378906	3973.231934
-423.500000	-1650.000000	1475.341797	4032.607910
-423.500000	-1650.000000	1474.303711	4108.817871
-423.500000	-1650.000000	1473.264648	4160.915039
-423.500000	-1650.000000	1472.226563	4246.693848
-423.500000	-1650.000000	1471.187500	4378.167480
-423.500000	-1650.000000	1470.149414	4220.816895
-423.500000	-1650.000000	1469.110352	4246.379883
-423.500000	-1650.000000	1468.070313	4377.768066
-423.500000	-1650.000000	1467.031250	4417.715332
-423.500000	-1650.000000	1465.991211	4433.601563
-423.500000	-1650.000000	1464.951172	4492.750000
-423.500000	-1650.000000	1463.911133	4518.226563
-423.500000	-1650.000000	1462.870117	4555.705566
-423.500000	-1650.000000	1461.830078	4549.926758
-423.500000	-1650.000000	1460.789063	4724.283691
-423.500000	-1650.000000	1459.748047	4660.840820
-423.500000	-1650.000000	1458.706055	4839.899902
-423.500000	-1650.000000	1457.665039	4639.645508
-423.500000	-1650.000000	1456.623047	4703.445313
-423.500000	-1650.000000	1455.581055	4827.197754
-423.500000	-1650.000000	1454.539063	4735.014648
-423.500000	-1650.000000	1453.496094	4762.779297
-423.500000	-1650.000000	1452.454102	4788.134277
-423.500000	-1650.000000	1451.411133	4832.655273
-423.500000	-1650.000000	1450.368164	4846.000488
-423.500000	-1650.000000	1449.324219	4799.436523
-423.500000	-1650.000000	1448.281250	4752.892090
-423.500000	-1650.000000	1447.237305	4706.367188
-423.500000	-1650.000000	1446.193359	4746.066895
-423.500000	-1650.000000	1445.148438	4680.410156
-423.500000	-1650.000000	1444.104492	4796.691895
-423.500000	-1650.000000	1443.059570	4726.265625
-423.500000	-1650.000000	1442.014648	4538.634766
-423.500000	-1650.000000	1440.969727	4566.366211
-423.500000	-1650.000000	1439.923828	4562.995605
-423.500000	-1650.000000	1438.878906	4509.415527
-423.500000	-1650.000000	1437.833008	4561.039063
-423.500000	-1650.000000	1436.787109	4390.372559
-423.500000	-1650.000000	1435.740234	4341.641602
-423.500000	-1650.000000	1434.694336	4443.434570
-423.500000	-1650.000000	1433.647461	4318.282715
-423.500000	-1650.000000	1432.600586	4300.640625
-423.500000	-1650.000000	1431.552734	4304.492188
-423.500000	-1650.000000	1430.505859	4308.341797
-423.500000	-1650.000000	1429.458008	4336.053223
-423.500000	-1650.000000	1428.410156	4406.697754
-423.500000	-1650.000000	1427.362305	4403.365723
-423.500000	-1650.000000	1426.313477	4357.107910
-423.500000	-1650.000000	1425.265625	4363.324707
-423.500000	-1650.000000	1424.216797	4252.730957
-423.500000	-1650.000000	1423.167969	4387.665527
-423.500000	-1650.000000	1422.118164	4260.434082
-423.500000	-1650.000000	1421.069336	4283.340820
-423.500000	-1650.000000	1420.019531	4353.872559
-423.500000	-1650.000000	1418.969727	4260.067383
