#X		#Y		#Wave		#Intensity
-242.500000	-1465.000000	1819.745117	3893.630127
-242.500000	-1465.000000	1818.780273	3841.784180
-242.500000	-1465.000000	1817.815430	4009.406250
-242.500000	-1465.000000	1816.850586	3873.788818
-242.500000	-1465.000000	1815.885742	3953.250488
-242.500000	-1465.000000	1814.920898	3970.516602
-242.500000	-1465.000000	1813.955078	3886.786133
-242.500000	-1465.000000	1812.989258	3997.259521
-242.500000	-1465.000000	1812.023438	3947.208252
-242.500000	-1465.000000	1811.057617	3897.178711
-242.500000	-1465.000000	1810.091797	3973.944092
-242.500000	-1465.000000	1809.125000	3923.930664
-242.500000	-1465.000000	1808.158203	4034.275635
-242.500000	-1465.000000	1807.191406	3966.172363
-242.500000	-1465.000000	1806.223633	3892.928955
-242.500000	-1465.000000	1805.256836	3956.689941
-242.500000	-1465.000000	1804.289063	3973.914063
-242.500000	-1465.000000	1803.321289	4055.712402
-242.500000	-1465.000000	1802.353516	3982.513428
-242.500000	-1465.000000	1801.384766	4022.959961
-242.500000	-1465.000000	1800.416992	4076.296875
-242.500000	-1465.000000	1799.448242	4039.275391
-242.500000	-1465.000000	1798.479492	4025.494141
-242.500000	-1465.000000	1797.510742	4086.535400
-242.500000	-1465.000000	1796.541016	3938.625000
-242.500000	-1465.000000	1795.571289	4087.336426
-242.500000	-1465.000000	1794.601563	3985.897949
-242.500000	-1465.000000	1793.631836	4015.963135
-242.500000	-1465.000000	1792.662109	4048.592285
-242.500000	-1465.000000	1791.691406	4114.702148
-242.500000	-1465.000000	1790.721680	4080.320801
-242.500000	-1465.000000	1789.750977	4069.133057
-242.500000	-1465.000000	1788.779297	4142.919922
-242.500000	-1465.000000	1787.808594	4098.257813
-242.500000	-1465.000000	1786.836914	4110.236816
-242.500000	-1465.000000	1785.865234	3967.820801
-242.500000	-1465.000000	1784.893555	4033.847900
-242.500000	-1465.000000	1783.921875	4161.575195
-242.500000	-1465.000000	1782.949219	4158.101563
-242.500000	-1465.000000	1781.977539	4031.224365
-242.500000	-1465.000000	1781.004883	4153.728516
-242.500000	-1465.000000	1780.031250	4080.873535
-242.500000	-1465.000000	1779.058594	4190.467773
-242.500000	-1465.000000	1778.084961	4084.243164
-242.500000	-1465.000000	1777.112305	4214.334473
-242.500000	-1465.000000	1776.138672	4251.936035
-242.500000	-1465.000000	1775.164063	4094.426025
-242.500000	-1465.000000	1774.190430	4209.031738
-242.500000	-1465.000000	1773.215820	4192.725586
-242.500000	-1465.000000	1772.241211	4202.080078
-242.500000	-1465.000000	1771.266602	4165.263672
-242.500000	-1465.000000	1770.291992	4287.447754
-242.500000	-1465.000000	1769.316406	4281.393555
-242.500000	-1465.000000	1768.340820	4121.552246
-242.500000	-1465.000000	1767.365234	4259.041992
-242.500000	-1465.000000	1766.389648	4232.501465
-242.500000	-1465.000000	1765.414063	4226.464355
-242.500000	-1465.000000	1764.437500	4251.161133
-242.500000	-1465.000000	1763.460938	4280.967773
-242.500000	-1465.000000	1762.484375	4205.808105
-242.500000	-1465.000000	1761.507813	4378.931641
-242.500000	-1465.000000	1760.531250	4203.993164
-242.500000	-1465.000000	1759.553711	4205.644531
-242.500000	-1465.000000	1758.576172	4324.945313
-242.500000	-1465.000000	1757.598633	4334.241211
-242.500000	-1465.000000	1756.620117	4287.289063
-242.500000	-1465.000000	1755.642578	4240.357422
-242.500000	-1465.000000	1754.664063	4300.773438
-242.500000	-1465.000000	1753.685547	4363.718262
-242.500000	-1465.000000	1752.707031	4281.040039
-242.500000	-1465.000000	1751.727539	4269.902832
-242.500000	-1465.000000	1750.749023	4445.155273
-242.500000	-1465.000000	1749.769531	4393.144531
-242.500000	-1465.000000	1748.790039	4272.249023
-242.500000	-1465.000000	1747.809570	4335.118652
-242.500000	-1465.000000	1746.830078	4392.859375
-242.500000	-1465.000000	1745.849609	4294.996094
-242.500000	-1465.000000	1744.869141	4258.373047
-242.500000	-1465.000000	1743.888672	4463.956543
-242.500000	-1465.000000	1742.908203	4417.117676
-242.500000	-1465.000000	1741.926758	4367.750488
-242.500000	-1465.000000	1740.945313	4552.795898
-242.500000	-1465.000000	1739.963867	4511.062500
-242.500000	-1465.000000	1738.982422	4387.854492
-242.500000	-1465.000000	1738.000000	4491.301270
-242.500000	-1465.000000	1737.018555	4561.611328
-242.500000	-1465.000000	1736.036133	4542.816406
-242.500000	-1465.000000	1735.053711	4419.707520
-242.500000	-1465.000000	1734.070313	4495.075195
-242.500000	-1465.000000	1733.087891	4636.538086
-242.500000	-1465.000000	1732.104492	4655.885254
-242.500000	-1465.000000	1731.121094	4604.041016
-242.500000	-1465.000000	1730.137695	4562.385254
-242.500000	-1465.000000	1729.154297	4670.677246
-242.500000	-1465.000000	1728.169922	4700.162598
-242.500000	-1465.000000	1727.185547	4739.795898
-242.500000	-1465.000000	1726.201172	4713.383789
-242.500000	-1465.000000	1725.216797	4699.678223
-242.500000	-1465.000000	1724.231445	4807.824219
-242.500000	-1465.000000	1723.247070	4778.876465
-242.500000	-1465.000000	1722.261719	4836.211914
-242.500000	-1465.000000	1721.276367	4847.859375
-242.500000	-1465.000000	1720.290039	4823.994629
-242.500000	-1465.000000	1719.304688	4828.032715
-242.500000	-1465.000000	1718.318359	4986.715332
-242.500000	-1465.000000	1717.332031	4869.053711
-242.500000	-1465.000000	1716.345703	4827.465332
-242.500000	-1465.000000	1715.358398	4841.633301
-242.500000	-1465.000000	1714.372070	4888.724121
-242.500000	-1465.000000	1713.384766	4930.729980
-242.500000	-1465.000000	1712.397461	4934.738770
-242.500000	-1465.000000	1711.409180	4918.494629
-242.500000	-1465.000000	1710.421875	4904.788086
-242.500000	-1465.000000	1709.433594	4934.102539
-242.500000	-1465.000000	1708.445313	4950.755859
-242.500000	-1465.000000	1707.457031	4871.291016
-242.500000	-1465.000000	1706.468750	4842.433594
-242.500000	-1465.000000	1705.479492	4894.489746
-242.500000	-1465.000000	1704.490234	4938.940430
-242.500000	-1465.000000	1703.500977	4930.303223
-242.500000	-1465.000000	1702.511719	5103.580078
-242.500000	-1465.000000	1701.521484	5059.547852
-242.500000	-1465.000000	1700.532227	4970.076172
-242.500000	-1465.000000	1699.541992	5140.708008
-242.500000	-1465.000000	1698.551758	5132.037109
-242.500000	-1465.000000	1697.560547	5176.369629
-242.500000	-1465.000000	1696.570313	5129.845215
-242.500000	-1465.000000	1695.579102	5290.206055
-242.500000	-1465.000000	1694.587891	5127.654785
-242.500000	-1465.000000	1693.596680	5313.164063
-242.500000	-1465.000000	1692.604492	5286.818848
-242.500000	-1465.000000	1691.613281	5472.214844
-242.500000	-1465.000000	1690.621094	5397.965332
-242.500000	-1465.000000	1689.628906	5318.708496
-242.500000	-1465.000000	1688.636719	5435.965820
-242.500000	-1465.000000	1687.643555	5437.324707
-242.500000	-1465.000000	1686.650391	5438.683105
-242.500000	-1465.000000	1685.657227	5502.975098
-242.500000	-1465.000000	1684.664063	5360.858887
-242.500000	-1465.000000	1683.670898	5432.688477
-242.500000	-1465.000000	1682.676758	5444.108887
-242.500000	-1465.000000	1681.683594	5458.040039
-242.500000	-1465.000000	1680.689453	5512.199707
-242.500000	-1465.000000	1679.694336	5503.482422
-242.500000	-1465.000000	1678.700195	5607.881348
-242.500000	-1465.000000	1677.705078	5654.435059
-242.500000	-1465.000000	1676.709961	5683.380859
-242.500000	-1465.000000	1675.714844	5609.321777
-242.500000	-1465.000000	1674.719727	5658.356445
-242.500000	-1465.000000	1673.723633	5594.377930
-242.500000	-1465.000000	1672.728516	5748.831543
-242.500000	-1465.000000	1671.732422	5709.959473
-242.500000	-1465.000000	1670.735352	5711.252930
-242.500000	-1465.000000	1669.739258	5710.037109
-242.500000	-1465.000000	1668.742188	5839.251465
-242.500000	-1465.000000	1667.746094	5787.853516
-242.500000	-1465.000000	1666.748047	5681.319336
-242.500000	-1465.000000	1665.750977	5657.549805
-242.500000	-1465.000000	1664.753906	5646.321289
-242.500000	-1465.000000	1663.755859	5595.007813
-242.500000	-1465.000000	1662.757813	5686.504883
-242.500000	-1465.000000	1661.759766	5600.141113
-242.500000	-1465.000000	1660.761719	5573.909668
-242.500000	-1465.000000	1659.762695	5652.834961
-242.500000	-1465.000000	1658.763672	5589.059082
-242.500000	-1465.000000	1657.764648	5723.000000
-242.500000	-1465.000000	1656.765625	5651.730469
-242.500000	-1465.000000	1655.765625	5537.968262
-242.500000	-1465.000000	1654.766602	5441.760254
-242.500000	-1465.000000	1653.766602	5525.612305
-242.500000	-1465.000000	1652.766602	5626.927246
-242.500000	-1465.000000	1651.765625	5678.214844
-242.500000	-1465.000000	1650.765625	5594.551270
-242.500000	-1465.000000	1649.764648	5610.849121
-242.500000	-1465.000000	1648.763672	5654.613770
-242.500000	-1465.000000	1647.762695	5610.961426
-242.500000	-1465.000000	1646.761719	5749.576172
-242.500000	-1465.000000	1645.759766	5820.739258
-242.500000	-1465.000000	1644.757813	5794.547363
-242.500000	-1465.000000	1643.755859	5788.326172
-242.500000	-1465.000000	1642.753906	5996.629395
-242.500000	-1465.000000	1641.750977	5893.104980
-242.500000	-1465.000000	1640.749023	6106.283691
-242.500000	-1465.000000	1639.746094	5930.487305
-242.500000	-1465.000000	1638.742188	6003.997070
-242.500000	-1465.000000	1637.739258	5920.493164
-242.500000	-1465.000000	1636.735352	5874.393066
-242.500000	-1465.000000	1635.732422	5927.941406
-242.500000	-1465.000000	1634.728516	5839.525391
-242.500000	-1465.000000	1633.723633	5820.857910
-242.500000	-1465.000000	1632.719727	5675.251465
-242.500000	-1465.000000	1631.714844	5549.615723
-242.500000	-1465.000000	1630.709961	5580.782715
-242.500000	-1465.000000	1629.705078	5482.583008
-242.500000	-1465.000000	1628.700195	5521.211426
-242.500000	-1465.000000	1627.694336	5487.714844
-242.500000	-1465.000000	1626.689453	5426.886719
-242.500000	-1465.000000	1625.683594	5341.229492
-242.500000	-1465.000000	1624.676758	5292.882324
-242.500000	-1465.000000	1623.670898	5423.431641
-242.500000	-1465.000000	1622.664063	5285.667969
-242.500000	-1465.000000	1621.657227	5468.313477
-242.500000	-1465.000000	1620.650391	5491.980957
-242.500000	-1465.000000	1619.643555	5431.240723
-242.500000	-1465.000000	1618.635742	5335.781250
-242.500000	-1465.000000	1617.628906	5272.618164
-242.500000	-1465.000000	1616.621094	5350.882324
-242.500000	-1465.000000	1615.613281	5362.147461
-242.500000	-1465.000000	1614.604492	5294.059082
-242.500000	-1465.000000	1613.596680	5426.809082
-242.500000	-1465.000000	1612.587891	5383.521484
-242.500000	-1465.000000	1611.579102	5422.028320
-242.500000	-1465.000000	1610.569336	5438.221191
-242.500000	-1465.000000	1609.560547	5323.124023
-242.500000	-1465.000000	1608.550781	5482.967285
-242.500000	-1465.000000	1607.541016	5526.372070
-242.500000	-1465.000000	1606.531250	5480.641602
-242.500000	-1465.000000	1605.521484	5573.525879
-242.500000	-1465.000000	1604.510742	5639.152344
-242.500000	-1465.000000	1603.500000	5677.538574
-242.500000	-1465.000000	1602.489258	5755.481445
-242.500000	-1465.000000	1601.478516	5660.292969
-242.500000	-1465.000000	1600.467773	5604.702148
-242.500000	-1465.000000	1599.456055	5474.980957
-242.500000	-1465.000000	1598.444336	5585.025879
-242.500000	-1465.000000	1597.432617	5435.598145
-242.500000	-1465.000000	1596.419922	5446.795898
-242.500000	-1465.000000	1595.408203	5497.504395
-242.500000	-1465.000000	1594.395508	5535.844727
-242.500000	-1465.000000	1593.382813	5440.862793
-242.500000	-1465.000000	1592.370117	5375.538086
-242.500000	-1465.000000	1591.356445	5359.592285
-242.500000	-1465.000000	1590.343750	5311.581543
-242.500000	-1465.000000	1589.330078	5480.646484
-242.500000	-1465.000000	1588.316406	5393.173340
-242.500000	-1465.000000	1587.301758	5468.459961
-242.500000	-1465.000000	1586.288086	5445.115723
-242.500000	-1465.000000	1585.273438	5522.822754
-242.500000	-1465.000000	1584.258789	5398.455566
-242.500000	-1465.000000	1583.244141	5490.919922
-242.500000	-1465.000000	1582.228516	5428.183594
-242.500000	-1465.000000	1581.213867	5468.892090
-242.500000	-1465.000000	1580.198242	5455.423340
-242.500000	-1465.000000	1579.182617	5552.718750
-242.500000	-1465.000000	1578.166016	5347.295410
-242.500000	-1465.000000	1577.150391	5542.982910
-242.500000	-1465.000000	1576.133789	5455.716309
-242.500000	-1465.000000	1575.117188	5454.559082
-242.500000	-1465.000000	1574.100586	5382.100098
-242.500000	-1465.000000	1573.083984	5513.700195
-242.500000	-1465.000000	1572.066406	5485.496582
-242.500000	-1465.000000	1571.048828	5508.904297
-242.500000	-1465.000000	1570.031250	5505.279297
-242.500000	-1465.000000	1569.013672	5477.094727
-242.500000	-1465.000000	1567.995117	5372.798828
-242.500000	-1465.000000	1566.976563	5528.782715
-242.500000	-1465.000000	1565.958008	5407.337402
-242.500000	-1465.000000	1564.939453	5457.725098
-242.500000	-1465.000000	1563.920898	5547.346191
-242.500000	-1465.000000	1562.901367	5511.828125
-242.500000	-1465.000000	1561.881836	5498.396484
-242.500000	-1465.000000	1560.862305	5614.922852
-242.500000	-1465.000000	1559.842773	5398.007324
-242.500000	-1465.000000	1558.822266	5433.625488
-242.500000	-1465.000000	1557.802734	5589.296387
-242.500000	-1465.000000	1556.782227	5482.767090
-242.500000	-1465.000000	1555.761719	5564.880859
-242.500000	-1465.000000	1554.740234	5507.377441
-242.500000	-1465.000000	1553.719727	5626.174805
-242.500000	-1465.000000	1552.698242	5524.622559
-242.500000	-1465.000000	1551.676758	5513.661133
-242.500000	-1465.000000	1550.654297	5600.573242
-242.500000	-1465.000000	1549.632813	5614.062012
-242.500000	-1465.000000	1548.610352	5585.968262
-242.500000	-1465.000000	1547.587891	5567.666504
-242.500000	-1465.000000	1546.565430	5661.826172
-242.500000	-1465.000000	1545.542969	5597.076660
-242.500000	-1465.000000	1544.519531	5424.835449
-242.500000	-1465.000000	1543.496094	5528.737305
-242.500000	-1465.000000	1542.472656	5547.104004
-242.500000	-1465.000000	1541.449219	5616.746094
-242.500000	-1465.000000	1540.424805	5522.774902
-242.500000	-1465.000000	1539.400391	5516.720703
-242.500000	-1465.000000	1538.375977	5605.848145
-242.500000	-1465.000000	1537.351563	5538.777832
-242.500000	-1465.000000	1536.327148	5683.970215
-242.500000	-1465.000000	1535.301758	5648.617676
-242.500000	-1465.000000	1534.276367	5535.250000
-242.500000	-1465.000000	1533.250977	5585.270508
-242.500000	-1465.000000	1532.225586	5557.272949
-242.500000	-1465.000000	1531.199219	5621.888184
-242.500000	-1465.000000	1530.173828	5732.767090
-242.500000	-1465.000000	1529.147461	5592.705566
-242.500000	-1465.000000	1528.121094	5516.022461
-242.500000	-1465.000000	1527.093750	5709.635254
-242.500000	-1465.000000	1526.067383	5659.736328
-242.500000	-1465.000000	1525.040039	5636.629883
-242.500000	-1465.000000	1524.012695	5623.265625
-242.500000	-1465.000000	1522.984375	5546.655762
-242.500000	-1465.000000	1521.957031	5579.527832
-242.500000	-1465.000000	1520.928711	5532.139648
-242.500000	-1465.000000	1519.900391	5620.917480
-242.500000	-1465.000000	1518.872070	5546.802734
-242.500000	-1465.000000	1517.842773	5630.678711
-242.500000	-1465.000000	1516.814453	5687.792969
-242.500000	-1465.000000	1515.785156	5701.158691
-242.500000	-1465.000000	1514.755859	5687.803223
-242.500000	-1465.000000	1513.725586	5708.446777
-242.500000	-1465.000000	1512.696289	5692.666992
-242.500000	-1465.000000	1511.666016	5698.737305
-242.500000	-1465.000000	1510.635742	5772.748047
-242.500000	-1465.000000	1509.605469	5754.538086
-242.500000	-1465.000000	1508.574219	5775.143555
-242.500000	-1465.000000	1507.543945	5628.415039
-242.500000	-1465.000000	1506.512695	5748.441406
-242.500000	-1465.000000	1505.481445	5749.642090
-242.500000	-1465.000000	1504.449219	5704.796387
-242.500000	-1465.000000	1503.417969	5902.262695
-242.500000	-1465.000000	1502.385742	5682.988770
-242.500000	-1465.000000	1501.353516	5788.342773
-242.500000	-1465.000000	1500.321289	5787.110352
-242.500000	-1465.000000	1499.288086	5904.500977
-242.500000	-1465.000000	1498.255859	5881.460449
-242.500000	-1465.000000	1497.222656	5824.551758
-242.500000	-1465.000000	1496.189453	5794.279297
-242.500000	-1465.000000	1495.155273	5851.096680
-242.500000	-1465.000000	1494.122070	5934.490723
-242.500000	-1465.000000	1493.087891	5819.590820
-242.500000	-1465.000000	1492.053711	5931.962402
-242.500000	-1465.000000	1491.018555	5981.450195
-242.500000	-1465.000000	1489.984375	5985.007813
-242.500000	-1465.000000	1488.949219	5923.339355
-242.500000	-1465.000000	1487.914063	6105.632324
-242.500000	-1465.000000	1486.878906	6029.475586
-242.500000	-1465.000000	1485.843750	6040.261230
-242.500000	-1465.000000	1484.807617	6072.764648
-242.500000	-1465.000000	1483.771484	5929.094238
-242.500000	-1465.000000	1482.735352	6251.122070
-242.500000	-1465.000000	1481.699219	6107.474121
-242.500000	-1465.000000	1480.662109	6139.933594
-242.500000	-1465.000000	1479.625000	6239.889648
-242.500000	-1465.000000	1478.587891	6308.464844
-242.500000	-1465.000000	1477.550781	6109.494141
-242.500000	-1465.000000	1476.513672	6419.021484
-242.500000	-1465.000000	1475.475586	6376.697754
-242.500000	-1465.000000	1474.437500	6336.800781
-242.500000	-1465.000000	1473.399414	6386.015625
-242.500000	-1465.000000	1472.361328	6413.542480
-242.500000	-1465.000000	1471.322266	6566.219238
-242.500000	-1465.000000	1470.283203	6511.874512
-242.500000	-1465.000000	1469.244141	6652.434570
-242.500000	-1465.000000	1468.205078	6727.987305
-242.500000	-1465.000000	1467.166016	6798.697754
-242.500000	-1465.000000	1466.125977	6674.620605
-242.500000	-1465.000000	1465.085938	6711.656250
-242.500000	-1465.000000	1464.045898	6782.323242
-242.500000	-1465.000000	1463.004883	6941.865234
-242.500000	-1465.000000	1461.964844	6740.986816
-242.500000	-1465.000000	1460.923828	6974.925293
-242.500000	-1465.000000	1459.882813	6862.973145
-242.500000	-1465.000000	1458.841797	6945.533691
-242.500000	-1465.000000	1457.799805	6951.249023
-242.500000	-1465.000000	1456.757813	6978.559570
-242.500000	-1465.000000	1455.715820	7193.000488
-242.500000	-1465.000000	1454.673828	6999.561035
-242.500000	-1465.000000	1453.631836	7113.178711
-242.500000	-1465.000000	1452.588867	6998.963379
-242.500000	-1465.000000	1451.545898	7066.984375
-242.500000	-1465.000000	1450.502930	7041.504395
-242.500000	-1465.000000	1449.458984	7186.164063
-242.500000	-1465.000000	1448.416016	7131.920410
-242.500000	-1465.000000	1447.372070	7034.586426
-242.500000	-1465.000000	1446.328125	7210.283691
-242.500000	-1465.000000	1445.284180	7112.973633
-242.500000	-1465.000000	1444.239258	7118.630371
-242.500000	-1465.000000	1443.194336	6880.187012
-242.500000	-1465.000000	1442.150391	6995.949219
-242.500000	-1465.000000	1441.104492	6848.532715
-242.500000	-1465.000000	1440.059570	6961.859863
-242.500000	-1465.000000	1439.013672	6852.769043
-242.500000	-1465.000000	1437.967773	6851.299805
-242.500000	-1465.000000	1436.921875	6687.307617
-242.500000	-1465.000000	1435.875977	6750.390137
-242.500000	-1465.000000	1434.829102	6713.106934
-242.500000	-1465.000000	1433.783203	6577.910645
-242.500000	-1465.000000	1432.735352	6476.203613
-242.500000	-1465.000000	1431.688477	6582.249023
-242.500000	-1465.000000	1430.641602	6564.127441
-242.500000	-1465.000000	1429.593750	6808.521484
-242.500000	-1465.000000	1428.545898	6809.444824
-242.500000	-1465.000000	1427.498047	6562.284180
-242.500000	-1465.000000	1426.449219	6746.896973
-242.500000	-1465.000000	1425.401367	6776.444336
-242.500000	-1465.000000	1424.352539	6729.694336
-242.500000	-1465.000000	1423.303711	6871.250000
-242.500000	-1465.000000	1422.253906	6814.966797
-242.500000	-1465.000000	1421.205078	6777.766602
-242.500000	-1465.000000	1420.155273	6785.835938
-242.500000	-1465.000000	1419.105469	6760.563477
