#Wave		#Intensity
1819.687500	2480.800293
1818.722656	2382.293945
1817.757813	2485.440918
1816.792969	2352.749512
1815.828125	2380.731445
1814.863281	2375.031006
1813.897461	2418.532471
1812.931641	2363.637695
1811.965820	2420.064209
1811.000000	2297.912109
1810.033203	2416.420410
1809.067383	2446.932373
1808.100586	2381.747314
1807.132813	2373.471436
1806.166016	2305.746094
1805.199219	2431.876709
1804.231445	2495.941162
1803.263672	2441.149658
1802.295898	2456.113770
1801.327148	2442.668213
1800.358398	2341.456299
1799.390625	2428.699951
1798.420898	2397.206299
1797.452148	2430.222656
1796.483398	2442.590576
1795.513672	2431.744385
1794.543945	2353.870361
1793.574219	2461.618408
1792.603516	2553.857178
1791.633789	2486.313477
1790.663086	2439.406738
1789.692383	2413.123047
1788.721680	2523.316162
1787.750000	2525.342529
1786.779297	2501.631104
1785.807617	2501.088379
1784.835938	2551.997314
1783.863281	2481.999268
1782.891602	2512.318604
1781.918945	2588.901123
1780.946289	2554.925537
1779.973633	2405.323975
1779.000000	2458.756836
1778.027344	2473.636230
1777.053711	2524.463135
1776.080078	2552.159668
1775.106445	2502.833984
1774.131836	2628.048584
1773.157227	2494.053223
1772.182617	2621.781006
1771.208008	2572.482910
1770.233398	2607.825928
1769.257813	2612.389404
1768.283203	2570.814941
1767.307617	2560.009033
1766.331055	2518.463623
1765.355469	2553.780029
1764.378906	2609.568604
1763.403320	2578.281006
1762.425781	2623.800781
1761.449219	2623.234375
1760.472656	2566.376953
1759.495117	2678.381836
1758.517578	2667.573730
1757.540039	2613.300537
1756.561523	2553.937500
1755.583984	2630.065186
1754.605469	2616.721436
1753.626953	2613.602783
1752.648438	2725.428467
1751.668945	2650.782715
1750.690430	2662.977783
1749.710938	2613.904297
1748.731445	2689.904053
1747.750977	2630.639648
1746.771484	2635.175537
1745.791016	2642.259766
1744.810547	2707.988525
1743.830078	2707.406006
1742.849609	2793.482910
1741.868164	2647.632080
1740.886719	2733.684814
1739.905273	2799.323242
1738.923828	2788.535156
1737.941406	2800.666260
1736.959961	2749.154297
1735.977539	2707.844238
1734.995117	2725.073730
1734.011719	2790.629150
1733.029297	2912.109863
1732.045898	2896.228027
1731.062500	2885.437500
1730.079102	2884.818359
1729.094727	2901.987305
1728.111328	2952.176758
1727.126953	3002.344727
1726.142578	2986.463867
1725.158203	2995.979248
1724.172852	3063.874268
1723.187500	3136.816162
1722.202148	3181.815674
1721.216797	3178.597168
1720.231445	3114.510010
1719.245117	3184.842529
1718.258789	3141.062744
1717.272461	3087.163086
1716.286133	3243.614502
1715.299805	3050.371826
1714.312500	3227.028076
1713.325195	3183.285645
1712.337891	3167.413086
1711.350586	3262.927246
1710.362305	3173.650391
1709.375000	3294.424805
1708.386719	3420.207275
1707.397461	3323.366455
1706.409180	3307.483887
1705.419922	3375.035889
1704.431641	3321.235352
1703.442383	3353.376953
1702.452148	3337.501221
1701.462891	3412.566895
1700.472656	3454.769775
1699.482422	3454.031738
1698.492188	3357.369141
1697.501953	3510.604004
1696.510742	3570.412354
1695.519531	3574.695557
1694.528320	3647.075684
1693.537109	3552.996338
1692.545898	3668.208984
1691.553711	3624.576416
1690.561523	3734.684326
1689.569336	3751.523926
1688.577148	3750.723633
1687.583984	3759.997070
1686.591797	3759.195313
1685.598633	3728.185303
1684.605469	3843.163574
1683.611328	3895.185791
1682.618164	3879.260986
1681.624023	4041.921875
1680.629883	3907.783203
1679.634766	3959.747070
1678.640625	4009.175049
1677.645508	3917.850830
1676.650391	4032.591797
1675.655273	3991.541016
1674.660156	4015.805420
1673.664063	3944.644287
1672.668945	3999.032715
1671.672852	3925.395508
1670.675781	4087.664795
1669.679688	3991.460938
1668.682617	4035.759766
1667.686523	3999.792725
1666.688477	3913.697510
1665.691406	4025.663330
1664.694336	3904.513428
1663.696289	3966.321777
1662.698242	4050.649170
1661.700195	4743.535645
1660.701172	4637.359863
1659.703125	4098.133301
1658.704102	3731.837158
1657.705078	3771.081299
1656.706055	3870.353271
1655.706055	3789.488037
1654.707031	3658.641846
1653.707031	3825.380615
1652.707031	3782.072021
1651.706055	3891.232178
1650.706055	3760.474854
1649.705078	3857.102539
1648.704102	3831.306641
1647.703125	3892.918945
1646.701172	3924.546631
1645.700195	3951.168701
1644.698242	4092.570801
1643.696289	4114.155762
1642.694336	4280.407227
1641.691406	4339.351074
1640.688477	4328.455566
1639.685547	4394.842285
1638.682617	4438.770020
1637.679688	4430.352051
1636.675781	4374.604004
1635.671875	4129.585938
1634.667969	4041.552979
1633.664063	4035.715576
1632.660156	3975.119873
1631.655273	3961.833008
1630.650391	3814.196289
1629.645508	3711.397705
1628.639648	3635.999512
1627.634766	3595.444092
1626.628906	3549.933838
1625.623047	3591.432373
1624.617188	3476.365234
1623.610352	3512.892822
1622.604492	3484.824951
1621.597656	3553.618164
1620.590820	3508.173828
1619.583008	3403.174561
1618.576172	3397.489014
1617.568359	3364.512451
1616.560547	3445.660889
1615.552734	3494.532715
1614.544922	3411.963623
1613.536133	3515.362061
1612.527344	3346.073242
1611.518555	3370.143799
1610.509766	3480.917236
1609.500000	3495.040771
1608.491211	3429.911133
1607.481445	3354.905273
1606.470703	3423.505371
1605.460938	3526.724609
1604.450195	3540.822754
1603.440430	3510.385498
1602.429688	3472.541260
1601.417969	3494.059814
1600.407227	3611.987793
1599.395508	3440.671143
1598.383789	3467.124756
1597.372070	3379.915039
1596.360352	3359.436768
1595.347656	3445.162109
1594.334961	3348.135498
1593.322266	3347.425293
1592.309570	3381.268555
1591.296875	3405.227051
1590.283203	3466.180664
1589.269531	3322.387939
1588.255859	3301.955566
1587.241211	3498.492432
1586.227539	3497.750488
1585.212891	3457.577881
1584.198242	3550.472656
1583.183594	3436.404541
1582.167969	3324.847412
1581.153320	3346.303223
1580.137695	3419.447754
1579.122070	3320.271240
1578.105469	3383.546875
1577.089844	3400.051025
1576.073242	3377.192383
1575.056641	3388.772217
1574.040039	3424.933594
1573.022461	3357.836914
1572.005859	3315.344971
1570.988281	3368.698242
1569.970703	3343.417969
1568.953125	3436.039307
1567.934570	3354.277344
1566.916016	3390.391357
1565.897461	3374.945068
1564.878906	3418.400879
1563.860352	3417.675781
1562.840820	3431.668457
1561.821289	3411.321045
1560.801758	3390.982178
1559.782227	3370.651611
1558.761719	3345.427979
1557.741211	3491.738770
1556.720703	3432.202148
1555.700195	3451.068359
1554.679688	3300.960205
1553.658203	3373.707764
1552.636719	3443.976563
1551.615234	3448.140137
1550.593750	3501.235840
1549.571289	3522.508545
1548.549805	3482.630127
1547.527344	3381.639893
1546.504883	3483.596680
1545.481445	3389.980957
1544.458008	3462.569336
1543.435547	3400.757324
1542.412109	3417.133301
1541.387695	3479.900879
1540.364258	3388.825928
1539.339844	3451.572266
1538.315430	3409.351318
1537.291016	3437.906982
1536.265625	3454.252930
1535.241211	3443.763672
1534.215820	3391.825684
1533.190430	3439.863281
1532.164063	3461.068848
1531.138672	3443.275879
1530.112305	3515.634521
1529.085938	3458.863770
1528.059570	3406.987549
1527.033203	3396.524658
1526.005859	3510.213379
1524.978516	3507.033936
1523.951172	3389.493408
1522.923828	3413.100098
1521.895508	3429.400146
1520.867188	3489.463379
1519.838867	3527.620361
1518.810547	3495.271973
1517.782227	3450.786621
1516.752930	3527.800537
1515.723633	3490.614014
1514.694336	3555.443359
1513.665039	3515.838379
1512.634766	3471.394775
1511.604492	3601.716064
1510.574219	3549.993164
1509.543945	3561.367920
1508.513672	3565.461182
1507.482422	3598.652344
1506.451172	3571.217529
1505.419922	3582.577393
1504.388672	3569.697754
1503.356445	3571.360840
1502.324219	3514.885742
1501.291992	3579.528076
1500.259766	3576.344727
1499.226563	3539.270752
1498.194336	3698.258545
1497.161133	3603.098389
1496.127930	3783.778320
1495.093750	3683.802490
1494.060547	3726.546387
1493.026367	3631.460449
1491.992188	3681.448486
1490.957031	3695.164551
1489.922852	3747.533447
1488.887695	3667.017090
1487.852539	3806.315674
1486.817383	3762.040527
1485.782227	3778.137451
1484.746094	3760.436523
1483.709961	3771.700195
1482.673828	3915.652100
1481.637695	3852.102539
1480.600586	3829.576904
1479.563477	3946.901611
1478.526367	3931.596436
1477.489258	3995.828369
1476.452148	4117.860840
1475.414063	4010.986084
1474.375977	4140.187988
1473.337891	4136.896484
1472.299805	4253.978516
1471.260742	4231.407715
1470.221680	4179.969238
1469.182617	4323.431152
1468.143555	4303.264648
1467.103516	4444.233887
1466.064453	4515.415527
1465.024414	4663.489746
1463.983398	4551.939453
1462.943359	4587.008789
1461.902344	4614.855957
1460.862305	4774.790527
1459.820313	4624.889648
1458.779297	4753.542480
1457.738281	4800.531250
1456.696289	4739.510254
1455.654297	4767.287598
1454.612305	4799.849609
1453.569336	4794.025879
1452.526367	4740.250488
1451.483398	4775.193359
1450.440430	4800.534668
1449.397461	4813.883789
1448.353516	4884.722168
1447.310547	4811.822266
1446.265625	4767.687988
1445.221680	4735.543457
1444.177734	4657.933594
1443.132813	4668.900879
1442.087891	4675.077637
1441.042969	4638.194824
1439.997070	4634.809082
1438.952148	4566.866211
1437.906250	4589.791992
1436.860352	4462.137207
1435.813477	4487.464355
1434.767578	4448.277832
1433.720703	4459.265625
1432.673828	4260.108398
1431.625977	4466.901367
1430.579102	4260.666504
1429.531250	4348.048828
1428.483398	4354.272461
1427.435547	4386.732910
1426.387695	4397.714844
1425.338867	4453.994629
1424.290039	4360.066895
1423.241211	4335.296387
1422.192383	4415.380371
1421.142578	4311.991699
1420.092773	4325.354980
1419.042969	4345.855957
1417.993164	4380.632813
1416.942383	4308.282227
1415.892578	4414.444336
1414.841797	4472.975098
1413.790039	4388.756348
1412.739258	4413.971680
1411.687500	4558.061035
1410.635742	4571.342773
1409.583984	4456.276855
1408.532227	4605.015625
1407.479492	4663.414551
1406.427734	4712.287109
1405.374023	4689.899414
1404.321289	4748.241211
1403.268555	4732.975586
1402.214844	4793.655273
1401.161133	4721.443359
1400.107422	4677.727051
1399.052734	4579.483398
1397.999023	4490.766113
1396.944336	4437.644531
1395.888672	4548.077148
1394.833984	4485.487305
1393.778320	4432.400391
1392.723633	4374.598633
1391.666992	4383.125488
1390.611328	4453.201660
1389.555664	4367.028320
1388.499023	4370.816895
1387.442383	4393.530762
1386.384766	4357.099121
1385.328125	4327.777344
1384.270508	4281.916992
1383.212891	4448.825684
1382.155273	4473.859375
1381.097656	4413.818848
1380.039063	4467.196777
1378.980469	4463.867188
1377.921875	4514.848633
1376.863281	4511.509277
1375.803711	4397.236816
1374.744141	4415.161621
1373.684570	4267.929199
1372.625000	4307.102051
1371.564453	4317.958984
1370.503906	4314.664063
1369.443359	4339.656738
1368.382813	4270.369629
1367.322266	4335.416016
1366.260742	4247.313477
1365.199219	4354.729004
1364.137695	4287.852051
1363.075195	4237.482422
1362.013672	4210.671387
1360.951172	4299.174316
1359.888672	4197.076660
1358.825195	4299.656250
1357.762695	4333.994629
1356.699219	4368.317383
1355.635742	4325.056152
1354.571289	4335.864746
1353.507813	4346.667969
1352.443359	4359.814941
1351.378906	4325.985840
1350.314453	4339.130859
1349.249023	4469.645020
1348.183594	4475.710938
1347.118164	4301.095215
1346.052734	4389.303711
1344.987305	4409.455078
1343.920898	4542.154297
1342.854492	4423.940918
1341.788086	4514.387695
1340.720703	4492.311035
1339.654297	4451.500000
1338.586914	4562.961426
1337.519531	4494.049805
1336.451172	4446.240234
1335.383789	4541.242188
1334.315430	4640.883301
1333.247070	4560.313477
1332.177734	4650.548828
1331.109375	4537.268066
1330.040039	4681.248535
1328.970703	4677.885254
1327.901367	4562.334473
1326.831055	4554.324219
1325.760742	4588.369629
1324.690430	4547.656250
1323.620117	4532.647461
1322.548828	4564.338867
1321.478516	4561.002930
1320.407227	4508.661133
1319.334961	4500.671875
1318.263672	4394.713867
1317.191406	4421.734375
1316.119141	4607.292969
1315.046875	4473.406738
1313.974609	4393.183105
1312.901367	4497.070801
1311.828125	4493.751953
1310.754883	4520.711914
1309.681641	4456.846191
1308.607422	4465.177246
1307.533203	4529.364746
1306.458984	4588.869629
1305.384766	4504.104492
1304.309570	4586.847656
1303.234375	4523.048828
1302.159180	4491.826660
1301.083984	4588.462891
1300.007813	4664.140625
1298.931641	4602.702148
1297.855469	4606.332031
1296.779297	4616.926758
1295.702148	4650.735352
1294.625977	4626.494141
1293.548828	4586.017090
1292.470703	4682.458008
1291.393555	4579.350098
1290.315430	4638.639160
1289.237305	4646.888184
1288.159180	4669.042969
1287.080078	4691.187012
1286.000977	4928.826660
1284.921875	4751.661621
1283.842773	4699.651855
1282.763672	4756.503418
1281.683594	4917.513672
1280.603516	4865.500000
1279.523438	4875.991211
1278.442383	4738.402832
1277.362305	4896.958984
1276.281250	4944.437500
1275.199219	4924.842285
1274.118164	4963.045898
1273.036133	5008.165039
1271.954102	4972.392578
1270.872070	5038.279297
1269.790039	5023.301270
1268.707031	5070.673828
1267.624023	5118.024414
1266.541016	4987.635742
1265.458008	4998.062988
1264.374023	5038.475098
1263.290039	5005.062012
1262.206055	5010.864258
1261.121094	5039.717773
1260.037109	5086.997559
1258.952148	4998.294434
1257.867188	4976.443848
1256.781250	5141.177246
1255.696289	5117.000488
1254.610352	5253.999512
1253.524414	5183.769531
1252.437500	5118.173828
1251.351563	5188.354492
1250.264648	5060.677246
1249.176758	5261.926758
1248.089844	5286.041504
1247.001953	5160.724609
1245.915039	5148.077637
1244.826172	5114.755859
1243.738281	5138.879395
1242.649414	5156.101074
1241.561523	5164.129395
1240.471680	5084.918457
1239.382813	5205.420898
1238.292969	5254.734375
1237.203125	5191.613281
1236.113281	5133.106934
1235.023438	5074.625977
1233.932617	4954.270996
1232.841797	5152.567383
1231.750977	4936.002441
1230.660156	4999.041016
1229.568359	5004.787598
1228.476563	5033.431152
1227.384766	4938.428223
1226.292969	4896.114258
1225.200195	4821.780273
1224.107422	4848.148926
1223.014648	4799.019531
1221.921875	4857.396484
1220.828125	4799.140625
1219.734375	4793.485840
1218.640625	4780.976563
1217.545898	4722.775391
1216.452148	4824.502930
1215.357422	4816.561035
1214.262695	4783.505859
1213.166992	4796.120605
1212.071289	4824.704590
1210.976563	4862.402344
1209.879883	4856.738770
1208.784180	4830.551270
1207.687500	4884.181152
1206.590820	4805.564941
1205.494141	4770.288086
1204.396484	4764.648926
1203.299805	4809.130371
1202.202148	4778.429688
1201.104492	4729.525879
1200.005859	4844.556641
1198.907227	4891.253418
1197.808594	4826.426270
1196.709961	4857.179199
1195.610352	4815.133301
1194.511719	4695.790039
1193.412109	4696.994629
1192.311523	4720.927734
1191.211914	4833.474121
1190.111328	4798.293945
1189.010742	4774.486328
1187.910156	4775.668457
1186.808594	4733.712402
1185.707031	4832.505371
1184.605469	4815.517090
1183.503906	4807.610840
1182.401367	4752.073242
1181.298828	4880.250488
1180.196289	4876.867676
1179.093750	4760.148926
1177.990234	4833.844727
1176.886719	4835.004395
1175.783203	4666.273926
1174.679688	4821.466797
1173.575195	4854.324219
1172.470703	4771.721191
1171.366211	4793.258301
1170.261719	4916.601074
1169.156250	4888.328125
1168.050781	4927.913574
1166.945313	4924.520996
1165.838867	4964.079102
1164.732422	4942.598145
1163.625977	5027.321777
1162.519531	5023.906738
1161.413086	5049.852051
1160.305664	5091.589844
1159.198242	5049.784668
1158.089844	4944.805664
1156.982422	5015.869629
1155.874023	4956.061523
1154.765625	4950.408203
1153.657227	4989.852539
1152.547852	5011.243652
1151.438477	4910.921875
1150.329102	4848.950195
1149.219727	4962.718262
1148.109375	4896.257813
1146.999023	5032.477539
1145.888672	4878.235352
1144.777344	4868.104004
1143.666992	4830.975586
1142.555664	4832.106445
1141.443359	4884.964355
1140.332031	4940.045898
1139.219727	4914.172363
1138.107422	5009.674805
1136.995117	4914.139160
1135.881836	4993.871094
1134.768555	4936.562988
1133.655273	5038.705078
1132.541992	5102.636230
1131.427734	4850.080566
1130.313477	5050.898926
1129.199219	5090.103516
1128.084961	5012.663086
1126.969727	5159.486328
1125.854492	5099.999023
1124.739258	4988.989746
1123.623047	5081.936523
1122.507813	4997.864258
1121.390625	4931.747559
1120.274414	4937.313965
1119.158203	5030.183105
1118.041016	5089.436523
1116.923828	5097.197754
1115.805664	5116.139160
1114.688477	5105.996582
1113.570313	5060.081543
1112.452148	5166.200195
1111.333008	5312.498047
1110.214844	5257.626953
1109.095703	5167.038086
1107.975586	5232.828125
1106.856445	5282.956543
1105.736328	5386.637207
1104.616211	5438.936035
1103.496094	5428.733398
1102.375000	5431.919434
1101.253906	5423.952148
1100.132813	5398.149902
1099.011719	5367.900391
1097.889648	5558.302734
1096.767578	5472.324219
1095.645508	5549.001953
1094.522461	5549.921875
1093.400391	5582.011719
1092.277344	5560.661133
1091.153320	5663.948730
1090.030273	5740.486328
1088.906250	5692.416992
1087.782227	5795.597656
1086.657227	5943.197266
1085.533203	6021.815918
1084.408203	5978.166992
1083.283203	6250.038574
1082.157227	6264.108398
1081.031250	6200.442383
1079.905273	6341.070313
1078.779297	6443.895020
1077.653320	6531.135254
1076.526367	6742.579590
1075.399414	6692.179688
1074.271484	6876.871582
1073.144531	6935.100098
1072.016602	6902.419922
1070.887695	6834.297363
1069.759766	6812.731934
1068.630859	6753.520996
1067.501953	6581.399414
1066.373047	6706.026367
1065.243164	6655.733398
1064.113281	6346.556152
1062.983398	6318.494141
1061.853516	6281.597656
1060.722656	6096.560059
1059.591797	6181.324707
1058.460938	6075.966309
1057.329102	6006.013184
1056.198242	6035.505859
1055.066406	5958.967773
1053.933594	5961.958008
1052.801758	5896.510254
1051.668945	5868.612793
1050.535156	5924.576660
1049.402344	5962.864746
1048.268555	5813.666992
1047.134766	5966.619629
1046.000977	5921.098633
1044.866211	5888.822266
1043.732422	5988.762207
1042.596680	6002.742676
1041.461914	6082.784668
1040.326172	6101.137207
1039.190430	6007.216309
1038.054688	6133.411621
1036.918945	6279.347168
1035.782227	6392.216309
1034.645508	6419.263672
1033.507813	6448.495605
1032.371094	6435.949219
1031.233398	6333.308105
1030.094727	6397.688965
1028.957031	6222.621094
1027.818359	6168.414063
1026.679688	6349.141113
1025.541016	6204.937500
1024.401367	6076.162598
1023.261719	6094.435547
1022.122070	6108.312012
1020.982422	6291.022461
1019.841797	6000.123047
1018.701172	6106.060059
1017.559570	6137.445313
1016.418945	6030.804688
1015.277344	6092.852051
1014.135742	6102.318848
1012.993164	6017.651367
1011.850586	5926.458984
1010.708008	5857.188965
1009.565430	5982.633789
1008.421875	6110.203613
1007.279297	6115.272949
1006.134766	6236.188477
1004.991211	6350.488281
1003.846680	6617.664551
1002.702148	6736.181152
1001.557617	6463.756348
1000.412109	6335.552734
999.266602	6150.662109
998.121094	6068.419922
996.975586	6156.378418
995.829102	6034.914063
994.682617	6009.450195
993.536133	6064.656250
992.388672	6108.937012
991.241211	6059.502441
990.093750	6081.977051
988.945313	6167.596191
987.797852	6255.349609
986.649414	6155.858398
985.500000	6130.406250
984.351563	6259.438477
983.202148	6188.292969
982.051758	6441.198730
980.902344	6248.292969
979.751953	6390.206543
978.601563	6582.027832
